Project5 Dipole-Dipole_1
  5.0000
11
3
Type of measurement (0=app. resistivity,1=resistance)
0
1360
2
0
4      15.00       2.00      10.00       1.13       0.00       0.00       5.00       0.50     547.7841
4      20.00       2.59      15.00       2.00       5.00       0.50      10.00       1.13     580.6691
4      25.00       3.85      20.00       2.59      10.00       1.13      15.00       2.00     720.4376
4      30.00       4.78      25.00       3.85      15.00       2.00      20.00       2.59     833.8035
4      35.00       5.50      30.00       4.78      20.00       2.59      25.00       3.85     967.6702
4      40.00       6.26      35.00       5.50      25.00       3.85      30.00       4.78     809.3792
4      45.00       6.94      40.00       6.26      30.00       4.78      35.00       5.50     743.5717
4      50.00       7.72      45.00       6.94      35.00       5.50      40.00       6.26     537.4527
4      55.00       8.14      50.00       7.72      40.00       6.26      45.00       6.94     667.1782
4      60.00       8.51      55.00       8.14      45.00       6.94      50.00       7.72     823.8029
4      65.00       8.95      60.00       8.51      50.00       7.72      55.00       8.14     638.3854
4      70.00       9.31      65.00       8.95      55.00       8.14      60.00       8.51     576.5825
4      75.00       9.72      70.00       9.31      60.00       8.51      65.00       8.95     542.2348
4      80.00      10.27      75.00       9.72      65.00       8.95      70.00       9.31     714.4858
4      85.00      10.83      80.00      10.27      70.00       9.31      75.00       9.72     672.8349
4      90.00      11.39      85.00      10.83      75.00       9.72      80.00      10.27     680.0420
4      95.00      11.93      90.00      11.39      80.00      10.27      85.00      10.83     567.4291
4     100.00      12.40      95.00      11.93      85.00      10.83      90.00      11.39     633.7956
4     105.00      12.86     100.00      12.40      90.00      11.39      95.00      11.93     745.1710
4     110.00      13.27     105.00      12.86      95.00      11.93     100.00      12.40     959.2067
4     115.00      13.87     110.00      13.27     100.00      12.40     105.00      12.86    1000.9585
4     120.00      14.58     115.00      13.87     105.00      12.86     110.00      13.27    1070.2683
4     125.00      15.55     120.00      14.58     110.00      13.27     115.00      13.87     937.2254
4     130.00      16.23     125.00      15.55     115.00      13.87     120.00      14.58     797.0120
4     135.00      16.98     130.00      16.23     120.00      14.58     125.00      15.55     841.0228
4     140.00      17.80     135.00      16.98     125.00      15.55     130.00      16.23     647.4954
4     145.00      18.89     140.00      17.80     130.00      16.23     135.00      16.98     672.3269
4     150.00      19.79     145.00      18.89     135.00      16.98     140.00      17.80     604.3318
4     155.00      20.49     150.00      19.79     140.00      17.80     145.00      18.89     677.7527
4     160.00      21.15     155.00      20.49     145.00      18.89     150.00      19.79     854.6040
4     165.00      21.92     160.00      21.15     150.00      19.79     155.00      20.49     797.9064
4     170.00      22.92     165.00      21.92     155.00      20.49     160.00      21.15    1043.1909
4     175.00      23.94     170.00      22.92     160.00      21.15     165.00      21.92     818.1517
4     180.00      24.68     175.00      23.94     165.00      21.92     170.00      22.92    1072.0120
4     185.00      25.27     180.00      24.68     170.00      22.92     175.00      23.94    1183.7898
4     190.00      25.87     185.00      25.27     175.00      23.94     180.00      24.68     916.7020
4     195.00      26.78     190.00      25.87     180.00      24.68     185.00      25.27    1277.1705
4     200.00      27.92     195.00      26.78     185.00      25.27     190.00      25.87     988.6497
4     205.00      28.51     200.00      27.92     190.00      25.87     195.00      26.78     866.6318
4     210.00      28.92     205.00      28.51     195.00      26.78     200.00      27.92     577.4985
4     215.00      29.45     210.00      28.92     200.00      27.92     205.00      28.51     476.9908
4     220.00      29.96     215.00      29.45     205.00      28.51     210.00      28.92     602.8060
4     225.00      30.41     220.00      29.96     210.00      28.92     215.00      29.45     590.9260
4     230.00      31.10     225.00      30.41     215.00      29.45     220.00      29.96    1034.8689
4     235.00      32.36     230.00      31.10     220.00      29.96     225.00      30.41    1694.3207
4     240.00      34.34     235.00      32.36     225.00      30.41     230.00      31.10    1007.6784
4     245.00      35.08     240.00      34.34     230.00      31.10     235.00      32.36     451.4808
4     250.00      36.80     245.00      35.08     235.00      32.36     240.00      34.34     491.3429
4     255.00      38.95     250.00      36.80     240.00      34.34     245.00      35.08     540.9332
4     260.00      42.77     255.00      38.95     245.00      35.08     250.00      36.80     535.0560
4     265.00      45.13     260.00      42.77     250.00      36.80     255.00      38.95     632.4308
4     270.00      47.83     265.00      45.13     255.00      38.95     260.00      42.77     693.6637
4     275.00      49.09     270.00      47.83     260.00      42.77     265.00      45.13     864.1673
4     280.00      50.82     275.00      49.09     265.00      45.13     270.00      47.83    1087.4120
4     285.00      51.50     280.00      50.82     270.00      47.83     275.00      49.09     897.2436
4     290.00      51.12     285.00      51.50     275.00      49.09     280.00      50.82     934.0652
4     295.00      54.37     290.00      51.12     280.00      50.82     285.00      51.50    1329.9587
4     300.00      54.08     295.00      54.37     285.00      51.50     290.00      51.12    1149.8041
4     305.00      53.63     300.00      54.08     290.00      51.12     295.00      54.37    1340.0526
4     310.00      54.18     305.00      53.63     295.00      54.37     300.00      54.08    1300.6759
4     315.00      55.11     310.00      54.18     300.00      54.08     305.00      53.63    1534.0051
4     320.00      56.31     315.00      55.11     305.00      53.63     310.00      54.18    1541.3564
4     325.00      55.60     320.00      56.31     310.00      54.18     315.00      55.11    1074.1420
4     330.00      55.90     325.00      55.60     315.00      55.11     320.00      56.31     847.5514
4     335.00      59.95     330.00      55.90     320.00      56.31     325.00      55.60     860.2211
4     340.00      61.89     335.00      59.95     325.00      55.60     330.00      55.90     905.5619
4     345.00      63.80     340.00      61.89     330.00      55.90     335.00      59.95     906.3168
4     350.00      67.33     345.00      63.80     335.00      59.95     340.00      61.89     942.2591
4     355.00      71.16     350.00      67.33     340.00      61.89     345.00      63.80    1182.2253
4     360.00      70.82     355.00      71.16     345.00      63.80     350.00      67.33    1436.2891
4     365.00      72.59     360.00      70.82     350.00      67.33     355.00      71.16    1559.6123
4     370.00      72.65     365.00      72.59     355.00      71.16     360.00      70.82    1848.3970
4     375.00      76.54     370.00      72.65     360.00      70.82     365.00      72.59    1636.9803
4     380.00      80.50     375.00      76.54     365.00      72.59     370.00      72.65     921.6943
4     385.00      81.39     380.00      80.50     370.00      72.65     375.00      76.54     799.0629
4     390.00      81.39     385.00      81.39     375.00      76.54     380.00      80.50    1174.9965
4     395.00      81.39     390.00      81.39     380.00      80.50     385.00      81.39    1307.3015
4     400.00      81.39     395.00      81.39     385.00      81.39     390.00      81.39    1248.1799
4      20.00       2.59      15.00       2.00       0.00       0.00       5.00       0.50     765.1563
4      25.00       3.85      20.00       2.59       5.00       0.50      10.00       1.13     751.7731
4      30.00       4.78      25.00       3.85      10.00       1.13      15.00       2.00     812.3066
4      35.00       5.50      30.00       4.78      15.00       2.00      20.00       2.59    1046.1805
4      40.00       6.26      35.00       5.50      20.00       2.59      25.00       3.85     830.6584
4      45.00       6.94      40.00       6.26      25.00       3.85      30.00       4.78     765.3221
4      50.00       7.72      45.00       6.94      30.00       4.78      35.00       5.50     893.7479
4      55.00       8.14      50.00       7.72      35.00       5.50      40.00       6.26     703.4730
4      60.00       8.51      55.00       8.14      40.00       6.26      45.00       6.94     819.6239
4      65.00       8.95      60.00       8.51      45.00       6.94      50.00       7.72     795.6171
4      70.00       9.31      65.00       8.95      50.00       7.72      55.00       8.14     722.1868
4      75.00       9.72      70.00       9.31      55.00       8.14      60.00       8.51     721.3046
4      80.00      10.27      75.00       9.72      60.00       8.51      65.00       8.95     633.8239
4      85.00      10.83      80.00      10.27      65.00       8.95      70.00       9.31     606.7709
4      90.00      11.39      85.00      10.83      70.00       9.31      75.00       9.72     521.8801
4      95.00      11.93      90.00      11.39      75.00       9.72      80.00      10.27     594.9598
4     100.00      12.40      95.00      11.93      80.00      10.27      85.00      10.83     534.1851
4     105.00      12.86     100.00      12.40      85.00      10.83      90.00      11.39     607.3817
4     110.00      13.27     105.00      12.86      90.00      11.39      95.00      11.93     721.4215
4     115.00      13.87     110.00      13.27      95.00      11.93     100.00      12.40     856.3014
4     120.00      14.58     115.00      13.87     100.00      12.40     105.00      12.86     948.3362
4     125.00      15.55     120.00      14.58     105.00      12.86     110.00      13.27     913.6342
4     130.00      16.23     125.00      15.55     110.00      13.27     115.00      13.87     710.7225
4     135.00      16.98     130.00      16.23     115.00      13.87     120.00      14.58     707.9479
4     140.00      17.80     135.00      16.98     120.00      14.58     125.00      15.55     675.9866
4     145.00      18.89     140.00      17.80     125.00      15.55     130.00      16.23     711.8347
4     150.00      19.79     145.00      18.89     130.00      16.23     135.00      16.98     735.9658
4     155.00      20.49     150.00      19.79     135.00      16.98     140.00      17.80     680.2541
4     160.00      21.15     155.00      20.49     140.00      17.80     145.00      18.89     929.9995
4     165.00      21.92     160.00      21.15     145.00      18.89     150.00      19.79     893.5896
4     170.00      22.92     165.00      21.92     150.00      19.79     155.00      20.49     954.5717
4     175.00      23.94     170.00      22.92     155.00      20.49     160.00      21.15    1068.6304
4     180.00      24.68     175.00      23.94     160.00      21.15     165.00      21.92     796.3786
4     185.00      25.27     180.00      24.68     165.00      21.92     170.00      22.92    1171.6017
4     190.00      25.87     185.00      25.27     170.00      22.92     175.00      23.94    1014.8978
4     195.00      26.78     190.00      25.87     175.00      23.94     180.00      24.68     945.6332
4     200.00      27.92     195.00      26.78     180.00      24.68     185.00      25.27     963.1407
4     205.00      28.51     200.00      27.92     185.00      25.27     190.00      25.87     759.8105
4     210.00      28.92     205.00      28.51     190.00      25.87     195.00      26.78     807.2097
4     215.00      29.45     210.00      28.92     195.00      26.78     200.00      27.92     564.1710
4     220.00      29.96     215.00      29.45     200.00      27.92     205.00      28.51     535.1917
4     225.00      30.41     220.00      29.96     205.00      28.51     210.00      28.92     780.5488
4     230.00      31.10     225.00      30.41     210.00      28.92     215.00      29.45     747.0494
4     235.00      32.36     230.00      31.10     215.00      29.45     220.00      29.96     846.6731
4     240.00      34.34     235.00      32.36     220.00      29.96     225.00      30.41     933.1925
4     245.00      35.08     240.00      34.34     225.00      30.41     230.00      31.10     411.1767
4     250.00      36.80     245.00      35.08     230.00      31.10     235.00      32.36     285.5086
4     255.00      38.95     250.00      36.80     235.00      32.36     240.00      34.34     286.9984
4     260.00      42.77     255.00      38.95     240.00      34.34     245.00      35.08     288.3066
4     265.00      45.13     260.00      42.77     245.00      35.08     250.00      36.80     349.5428
4     270.00      47.83     265.00      45.13     250.00      36.80     255.00      38.95     506.6987
4     275.00      49.09     270.00      47.83     255.00      38.95     260.00      42.77     560.5594
4     280.00      50.82     275.00      49.09     260.00      42.77     265.00      45.13     838.2963
4     285.00      51.50     280.00      50.82     265.00      45.13     270.00      47.83    1003.1507
4     290.00      51.12     285.00      51.50     270.00      47.83     275.00      49.09     894.8412
4     295.00      54.37     290.00      51.12     275.00      49.09     280.00      50.82    1455.9095
4     300.00      54.08     295.00      54.37     280.00      50.82     285.00      51.50    1085.0483
4     305.00      53.63     300.00      54.08     285.00      51.50     290.00      51.12    1142.7996
4     310.00      54.18     305.00      53.63     290.00      51.12     295.00      54.37    1409.6000
4     315.00      55.11     310.00      54.18     295.00      54.37     300.00      54.08    1359.8899
4     320.00      56.31     315.00      55.11     300.00      54.08     305.00      53.63    1313.5087
4     325.00      55.60     320.00      56.31     305.00      53.63     310.00      54.18     855.9772
4     330.00      55.90     325.00      55.60     310.00      54.18     315.00      55.11     683.6244
4     335.00      59.95     330.00      55.90     315.00      55.11     320.00      56.31     650.4115
4     340.00      61.89     335.00      59.95     320.00      56.31     325.00      55.60     910.9839
4     345.00      63.80     340.00      61.89     325.00      55.60     330.00      55.90     836.6978
4     350.00      67.33     345.00      63.80     330.00      55.90     335.00      59.95    1055.0398
4     355.00      71.16     350.00      67.33     335.00      59.95     340.00      61.89    1170.6215
4     360.00      70.82     355.00      71.16     340.00      61.89     345.00      63.80    1583.8264
4     365.00      72.59     360.00      70.82     345.00      63.80     350.00      67.33    1681.5426
4     370.00      72.65     365.00      72.59     350.00      67.33     355.00      71.16    2005.1857
4     375.00      76.54     370.00      72.65     355.00      71.16     360.00      70.82    2356.0173
4     380.00      80.50     375.00      76.54     360.00      70.82     365.00      72.59    1084.6752
4     385.00      81.39     380.00      80.50     365.00      72.59     370.00      72.65     795.3306
4     390.00      81.39     385.00      81.39     370.00      72.65     375.00      76.54     905.7551
4     395.00      81.39     390.00      81.39     375.00      76.54     380.00      80.50     975.1780
4     400.00      81.39     395.00      81.39     380.00      80.50     385.00      81.39    1121.4430
4      30.00       4.78      20.00       2.59       0.00       0.00      10.00       1.13     794.6935
4      40.00       6.26      30.00       4.78      10.00       1.13      20.00       2.59     935.7014
4      50.00       7.72      40.00       6.26      20.00       2.59      30.00       4.78     797.2476
4      60.00       8.51      50.00       7.72      30.00       4.78      40.00       6.26     807.4452
4      70.00       9.31      60.00       8.51      40.00       6.26      50.00       7.72     776.4509
4      80.00      10.27      70.00       9.31      50.00       7.72      60.00       8.51     758.1989
4      90.00      11.39      80.00      10.27      60.00       8.51      70.00       9.31     584.4305
4     100.00      12.40      90.00      11.39      70.00       9.31      80.00      10.27     598.3528
4     110.00      13.27     100.00      12.40      80.00      10.27      90.00      11.39     643.6049
4     120.00      14.58     110.00      13.27      90.00      11.39     100.00      12.40     825.2411
4     130.00      16.23     120.00      14.58     100.00      12.40     110.00      13.27     870.5347
4     140.00      17.80     130.00      16.23     110.00      13.27     120.00      14.58     696.8605
4     150.00      19.79     140.00      17.80     120.00      14.58     130.00      16.23     734.3485
4     160.00      21.15     150.00      19.79     130.00      16.23     140.00      17.80     766.4814
4     170.00      22.92     160.00      21.15     140.00      17.80     150.00      19.79     946.4042
4     180.00      24.68     170.00      22.92     150.00      19.79     160.00      21.15    1016.5792
4     190.00      25.87     180.00      24.68     160.00      21.15     170.00      22.92    1076.0834
4     200.00      27.92     190.00      25.87     170.00      22.92     180.00      24.68     941.7992
4     210.00      28.92     200.00      27.92     180.00      24.68     190.00      25.87     799.0402
4     220.00      29.96     210.00      28.92     190.00      25.87     200.00      27.92     637.7898
4     230.00      31.10     220.00      29.96     200.00      27.92     210.00      28.92     809.9410
4     240.00      34.34     230.00      31.10     210.00      28.92     220.00      29.96     711.3747
4     250.00      36.80     240.00      34.34     220.00      29.96     230.00      31.10     377.8959
4     260.00      42.77     250.00      36.80     230.00      31.10     240.00      34.34     236.6355
4     270.00      47.83     260.00      42.77     240.00      34.34     250.00      36.80     293.4669
4     280.00      50.82     270.00      47.83     250.00      36.80     260.00      42.77     480.4224
4     290.00      51.12     280.00      50.82     260.00      42.77     270.00      47.83     858.8008
4     300.00      54.08     290.00      51.12     270.00      47.83     280.00      50.82    1256.8318
4     310.00      54.18     300.00      54.08     280.00      50.82     290.00      51.12    1084.4564
4     320.00      56.31     310.00      54.18     290.00      51.12     300.00      54.08    1243.5599
4     330.00      55.90     320.00      56.31     300.00      54.08     310.00      54.18     699.3261
4     340.00      61.89     330.00      55.90     310.00      54.18     320.00      56.31     612.5804
4     350.00      67.33     340.00      61.89     320.00      56.31     330.00      55.90     853.1555
4     360.00      70.82     350.00      67.33     330.00      55.90     340.00      61.89    1263.1257
4     370.00      72.65     360.00      70.82     340.00      61.89     350.00      67.33    1832.9364
4     380.00      80.50     370.00      72.65     350.00      67.33     360.00      70.82    2040.4456
4     390.00      81.39     380.00      80.50     360.00      70.82     370.00      72.65     939.0453
4     400.00      81.39     390.00      81.39     370.00      72.65     380.00      80.50     918.5898
