Project10	Gradient	XL_1							
    3.00000
11
14
Type of resistivity data (1=resistance,0=resistivity)
0
1433
2
0
4      0.000     38.050     27.000     38.865      3.000     38.141      6.000     38.231    138.1671 
4      0.000     38.050     27.000     38.865     21.000     38.684     24.000     38.775     69.5912 
4      3.000     38.141     30.000     38.956      6.000     38.231      9.000     38.322    106.2720 
4      3.000     38.141     30.000     38.956     24.000     38.775     27.000     38.865     58.2193 
4      6.000     38.231     33.000     37.920     27.000     38.865     30.000     38.956     88.8427 
4      6.000     38.231     33.000     37.920      9.000     38.322     12.000     38.412     79.8503 
4      9.000     38.322     36.000     36.829     30.000     38.956     33.000     37.920     58.2030 
4      9.000     38.322     36.000     36.829     12.000     38.412     15.000     38.503     74.6998 
4     12.000     38.412     39.000     35.738     15.000     38.503     18.000     38.593     60.4841 
4     12.000     38.412     39.000     35.738     33.000     37.920     36.000     36.829     60.7436 
4     15.000     38.503     42.000     34.647     18.000     38.593     21.000     38.684     53.3910 
4     15.000     38.503     42.000     34.647     36.000     36.829     39.000     35.738     38.0400 
4     18.000     38.593     45.000     33.556     21.000     38.684     24.000     38.775     53.6065 
4     18.000     38.593     45.000     33.556     39.000     35.738     42.000     34.647     36.8079 
4     21.000     38.684     48.000     33.483     24.000     38.775     27.000     38.865     47.1092 
4     21.000     38.684     48.000     33.483     42.000     34.647     45.000     33.556     41.3793 
4     24.000     38.775     51.000     33.435     45.000     33.556     48.000     33.483     95.7749 
4     24.000     38.775     51.000     33.435     27.000     38.865     30.000     38.956     80.2317 
4     27.000     38.865     54.000     33.388     48.000     33.483     51.000     33.435    204.2698 
4     27.000     38.865     54.000     33.388     30.000     38.956     33.000     37.920     65.3667 
4     30.000     38.956     57.000     33.340     33.000     37.920     36.000     36.829     86.1950 
4     30.000     38.956     57.000     33.340     51.000     33.435     54.000     33.388    214.6869 
4     33.000     37.920     60.000     33.292     54.000     33.388     57.000     33.340    308.5916 
4     33.000     37.920     60.000     33.292     36.000     36.829     39.000     35.738     51.1088 
4     36.000     36.829     63.000     32.832     57.000     33.340     60.000     33.292    424.4468 
4     36.000     36.829     63.000     32.832     39.000     35.738     42.000     34.647     53.8230 
4     39.000     35.738     66.000     31.548     60.000     33.292     63.000     32.832    666.8105 
4     39.000     35.738     66.000     31.548     42.000     34.647     45.000     33.556     40.5213 
4     42.000     34.647     69.000     30.264     63.000     32.832     66.000     31.548    649.7866 
4     42.000     34.647     69.000     30.264     45.000     33.556     48.000     33.483     39.0727 
4     45.000     33.556     72.000     28.980     48.000     33.483     51.000     33.435     43.9465 
4     45.000     33.556     72.000     28.980     66.000     31.548     69.000     30.264   1425.5542 
4     48.000     33.483     75.000     28.185     51.000     33.435     54.000     33.388     88.0717 
4     48.000     33.483     75.000     28.185     69.000     30.264     72.000     28.980   1228.2163 
4     51.000     33.435     78.000     27.561     72.000     28.980     75.000     28.185   1536.3750 
4     51.000     33.435     78.000     27.561     54.000     33.388     57.000     33.340    173.1314 
4     54.000     33.388     81.000     26.936     75.000     28.185     78.000     27.561    812.8329 
4     54.000     33.388     81.000     26.936     57.000     33.340     60.000     33.292    173.5518 
4     57.000     33.340     84.000     26.311     78.000     27.561     81.000     26.936   1494.4688 
4     57.000     33.340     84.000     26.311     60.000     33.292     63.000     32.832    188.1286 
4     60.000     33.292     87.000     25.686     81.000     26.936     84.000     26.311   1754.2057 
4     60.000     33.292     87.000     25.686     63.000     32.832     66.000     31.548    423.8571 
4     63.000     32.832     90.000     24.876     66.000     31.548     69.000     30.264    797.8256 
4     63.000     32.832     90.000     24.876     84.000     26.311     87.000     25.686   1846.2263 
4     66.000     31.548     93.000     23.945     87.000     25.686     90.000     24.876   1721.2682 
4     66.000     31.548     93.000     23.945     69.000     30.264     72.000     28.980    571.4883 
4     69.000     30.264     96.000     23.015     72.000     28.980     75.000     28.185   1137.6152 
4     69.000     30.264     96.000     23.015     90.000     24.876     93.000     23.945   1700.5970 
4     72.000     28.980     99.000     22.085     93.000     23.945     96.000     23.015   1733.4000 
4     72.000     28.980     99.000     22.085     75.000     28.185     78.000     27.561   1187.7076 
4     75.000     28.185    102.000     21.155     96.000     23.015     99.000     22.085   2069.3057 
4     75.000     28.185    102.000     21.155     78.000     27.561     81.000     26.936   1647.6364 
4     78.000     27.561    105.000     20.420     99.000     22.085    102.000     21.155   2169.7856 
4     78.000     27.561    105.000     20.420     81.000     26.936     84.000     26.311    819.5413 
4     81.000     26.936    108.000     19.723     84.000     26.311     87.000     25.686   1241.7058 
4     81.000     26.936    108.000     19.723    102.000     21.155    105.000     20.420   1997.4357 
4     84.000     26.311    111.000     19.211    105.000     20.420    108.000     19.723   2848.8916 
4     84.000     26.311    111.000     19.211     87.000     25.686     90.000     24.876   1471.2898 
4     87.000     25.686    114.000     18.726    108.000     19.723    111.000     19.211   1425.1501 
4     87.000     25.686    114.000     18.726     90.000     24.876     93.000     23.945   1785.7092 
4     90.000     24.876    117.000     18.242    111.000     19.211    114.000     18.726   2454.7219 
4     90.000     24.876    117.000     18.242     93.000     23.945     96.000     23.015   1748.7677 
4     93.000     23.945    120.000     17.899     96.000     23.015     99.000     22.085   1717.8649 
4     93.000     23.945    120.000     17.899    114.000     18.726    117.000     18.242   2089.3291 
4     96.000     23.015    123.000     17.566     99.000     22.085    102.000     21.155   1750.2163 
4     96.000     23.015    123.000     17.566    117.000     18.242    120.000     17.899   1768.2195 
4     99.000     22.085    126.000     17.233    120.000     17.899    123.000     17.566   1376.6338 
4     99.000     22.085    126.000     17.233    102.000     21.155    105.000     20.420   1953.4838 
4    102.000     21.155    129.000     16.900    123.000     17.566    126.000     17.233   1008.8896 
4    102.000     21.155    129.000     16.900    105.000     20.420    108.000     19.723   2143.3308 
4    105.000     20.420    132.000     16.567    108.000     19.723    111.000     19.211   1595.4836 
4    105.000     20.420    132.000     16.567    126.000     17.233    129.000     16.900   1092.1381 
4    108.000     19.723    135.000     16.375    129.000     16.900    132.000     16.567   1231.9580 
4    108.000     19.723    135.000     16.375    111.000     19.211    114.000     18.726   3127.1523 
4    111.000     19.211    138.000     16.186    132.000     16.567    135.000     16.375    843.8959 
4    111.000     19.211    138.000     16.186    114.000     18.726    117.000     18.242   1550.7308 
4    114.000     18.726    141.000     15.997    117.000     18.242    120.000     17.899   2325.5522 
4    114.000     18.726    141.000     15.997    135.000     16.375    138.000     16.186    601.5831 
4    117.000     18.242    144.000     15.808    138.000     16.186    141.000     15.997    531.9116 
4    117.000     18.242    144.000     15.808    120.000     17.899    123.000     17.566   2084.5825 
4    120.000     17.899    147.000     15.618    141.000     15.997    144.000     15.808    212.4491 
4    120.000     17.899    147.000     15.618    123.000     17.566    126.000     17.233   1556.0051 
4    123.000     17.566    150.000     15.429    144.000     15.808    147.000     15.618    168.6114 
4    123.000     17.566    150.000     15.429    126.000     17.233    129.000     16.900   1486.3335 
4    126.000     17.233    153.000     15.262    147.000     15.618    150.000     15.429    216.7864 
4    126.000     17.233    153.000     15.262    129.000     16.900    132.000     16.567   1208.2113 
4    129.000     16.900    156.000     15.096    150.000     15.429    153.000     15.262    553.8821 
4    129.000     16.900    156.000     15.096    132.000     16.567    135.000     16.375   1210.9412 
4    132.000     16.567    159.000     14.930    153.000     15.262    156.000     15.096    446.4937 
4    132.000     16.567    159.000     14.930    135.000     16.375    138.000     16.186   1381.9006 
4    135.000     16.375    162.000     14.763    138.000     16.186    141.000     15.997    975.2896 
4    135.000     16.375    162.000     14.763    156.000     15.096    159.000     14.930    358.3376 
4    138.000     16.186    165.000     14.197    159.000     14.930    162.000     14.763    245.3379 
4    138.000     16.186    165.000     14.197    141.000     15.997    144.000     15.808    692.9742 
4    141.000     15.997    168.000     13.623    162.000     14.763    165.000     14.197    172.0227 
4    141.000     15.997    168.000     13.623    144.000     15.808    147.000     15.618    651.2171 
4    144.000     15.808    171.000     13.049    165.000     14.197    168.000     13.623     98.2959 
4    144.000     15.808    171.000     13.049    147.000     15.618    150.000     15.429    179.3211 
4    147.000     15.618    174.000     12.474    150.000     15.429    153.000     15.262    166.4125 
4    147.000     15.618    174.000     12.474    168.000     13.623    171.000     13.049     54.6442 
4    150.000     15.429    177.000     11.864    153.000     15.262    156.000     15.096    248.5818 
4    150.000     15.429    177.000     11.864    171.000     13.049    174.000     12.474     76.4615 
4    153.000     15.262    180.000     10.772    174.000     12.474    177.000     11.864    184.9255 
4    153.000     15.262    180.000     10.772    156.000     15.096    159.000     14.930    526.1860 
4    156.000     15.096    183.000      9.680    159.000     14.930    162.000     14.763    473.2034 
4    156.000     15.096    183.000      9.680    177.000     11.864    180.000     10.772   1057.4060 
4    159.000     14.930    186.000      8.588    162.000     14.763    165.000     14.197    377.5101 
4    159.000     14.930    186.000      8.588    180.000     10.772    183.000      9.680   3243.7278 
4    162.000     14.763    189.000      7.496    183.000      9.680    186.000      8.588   4417.1816 
4    162.000     14.763    189.000      7.496    165.000     14.197    168.000     13.623    256.9951 
4    165.000     14.197    192.000      6.407    168.000     13.623    171.000     13.049    166.2443 
4    165.000     14.197    192.000      6.407    186.000      8.588    189.000      7.496   1978.0786 
4    168.000     13.623    195.000      5.405    171.000     13.049    174.000     12.474     87.3146 
4    168.000     13.623    195.000      5.405    189.000      7.496    192.000      6.407   1205.4596 
4    171.000     13.049    198.000      4.404    174.000     12.474    177.000     11.864     68.3900 
4    171.000     13.049    198.000      4.404    192.000      6.407    195.000      5.405    351.1873 
4    174.000     12.474    201.000      3.438    195.000      5.405    198.000      4.404    207.1839 
4    174.000     12.474    201.000      3.438    177.000     11.864    180.000     10.772     71.0104 
4    177.000     11.864    204.000      2.964    198.000      4.404    201.000      3.438    246.1325 
4    177.000     11.864    204.000      2.964    180.000     10.772    183.000      9.680    132.6126 
4    180.000     10.772    207.000      2.489    201.000      3.438    204.000      2.964    212.6270 
4    180.000     10.772    207.000      2.489    183.000      9.680    186.000      8.588    767.7490 
4    183.000      9.680    210.000      2.014    204.000      2.964    207.000      2.489    220.0918 
4    183.000      9.680    210.000      2.014    186.000      8.588    189.000      7.496   2178.8855 
4    186.000      8.588    213.000      1.540    207.000      2.489    210.000      2.014    292.5130 
4    186.000      8.588    213.000      1.540    189.000      7.496    192.000      6.407   4169.2305 
4    189.000      7.496    216.000      1.065    210.000      2.014    213.000      1.540    279.7227 
4    189.000      7.496    216.000      1.065    192.000      6.407    195.000      5.405   2585.3000 
4    192.000      6.407    219.000      0.591    213.000      1.540    216.000      1.065    300.1029 
4    192.000      6.407    219.000      0.591    195.000      5.405    198.000      4.404   1963.4825 
4    195.000      5.405    222.000      0.415    216.000      1.065    219.000      0.591    325.4986 
4    195.000      5.405    222.000      0.415    198.000      4.404    201.000      3.438    554.2279 
4    198.000      4.404    225.000      0.300    219.000      0.591    222.000      0.415    409.2865 
4    198.000      4.404    225.000      0.300    201.000      3.438    204.000      2.964    240.2686 
4    201.000      3.438    228.000      0.186    204.000      2.964    207.000      2.489    257.9436 
4    201.000      3.438    228.000      0.186    222.000      0.415    225.000      0.300    453.6462 
4    204.000      2.964    231.000      0.071    225.000      0.300    228.000      0.186    338.8403 
4    204.000      2.964    231.000      0.071    207.000      2.489    210.000      2.014    241.4635 
4    207.000      2.489    234.000      0.000    228.000      0.186    231.000      0.071    584.1480 
4    207.000      2.489    234.000      0.000    210.000      2.014    213.000      1.540    228.2696 
4    210.000      2.014    237.000      0.000    213.000      1.540    216.000      1.065    266.9284 
4    210.000      2.014    237.000      0.000    231.000      0.071    234.000      0.000    682.0107 
4    213.000      1.540    240.000      0.000    234.000      0.000    237.000      0.000    689.5381 
4    213.000      1.540    240.000      0.000    216.000      1.065    219.000      0.591    273.7357 
4      0.000     38.050     27.000     38.865     18.000     38.593     21.000     38.684     75.9043 
4      0.000     38.050     27.000     38.865      6.000     38.231      9.000     38.322    161.8751 
4      3.000     38.141     30.000     38.956      9.000     38.322     12.000     38.412    121.3677 
4      3.000     38.141     30.000     38.956     21.000     38.684     24.000     38.775     73.3569 
4      6.000     38.231     33.000     37.920     24.000     38.775     27.000     38.865     62.7709 
4      6.000     38.231     33.000     37.920     12.000     38.412     15.000     38.503    113.2985 
4      9.000     38.322     36.000     36.829     27.000     38.865     30.000     38.956     85.1065 
4      9.000     38.322     36.000     36.829     15.000     38.503     18.000     38.593     99.1818 
4     12.000     38.412     39.000     35.738     30.000     38.956     33.000     37.920     79.7177 
4     12.000     38.412     39.000     35.738     18.000     38.593     21.000     38.684     81.6628 
4     15.000     38.503     42.000     34.647     21.000     38.684     24.000     38.775     82.1357 
4     15.000     38.503     42.000     34.647     33.000     37.920     36.000     36.829     83.7535 
4     18.000     38.593     45.000     33.556     36.000     36.829     39.000     35.738     57.1988 
4     18.000     38.593     45.000     33.556     24.000     38.775     27.000     38.865     72.1255 
4     21.000     38.684     48.000     33.483     27.000     38.865     30.000     38.956    100.7058 
4     21.000     38.684     48.000     33.483     39.000     35.738     42.000     34.647     53.7051 
4     24.000     38.775     51.000     33.435     42.000     34.647     45.000     33.556     53.5914 
4     24.000     38.775     51.000     33.435     30.000     38.956     33.000     37.920     81.0331 
4     27.000     38.865     54.000     33.388     33.000     37.920     36.000     36.829     75.8778 
4     27.000     38.865     54.000     33.388     45.000     33.556     48.000     33.483     80.6470 
4     30.000     38.956     57.000     33.340     36.000     36.829     39.000     35.738     58.7818 
4     30.000     38.956     57.000     33.340     48.000     33.483     51.000     33.435    167.3238 
4     33.000     37.920     60.000     33.292     39.000     35.738     42.000     34.647     63.4860 
4     33.000     37.920     60.000     33.292     51.000     33.435     54.000     33.388    229.4609 
4     36.000     36.829     63.000     32.832     54.000     33.388     57.000     33.340    461.0663 
4     36.000     36.829     63.000     32.832     42.000     34.647     45.000     33.556     65.1264 
4     39.000     35.738     66.000     31.548     57.000     33.340     60.000     33.292    396.2751 
4     39.000     35.738     66.000     31.548     45.000     33.556     48.000     33.483     63.6681 
4     42.000     34.647     69.000     30.264     48.000     33.483     51.000     33.435     62.3088 
4     42.000     34.647     69.000     30.264     60.000     33.292     63.000     32.832    235.4629 
4     45.000     33.556     72.000     28.980     51.000     33.435     54.000     33.388     61.8946 
4     45.000     33.556     72.000     28.980     63.000     32.832     66.000     31.548    471.5017 
4     48.000     33.483     75.000     28.185     66.000     31.548     69.000     30.264   1191.9159 
4     48.000     33.483     75.000     28.185     54.000     33.388     57.000     33.340     84.3380 
4     51.000     33.435     78.000     27.561     69.000     30.264     72.000     28.980    978.2242 
4     51.000     33.435     78.000     27.561     57.000     33.340     60.000     33.292    118.6740 
4     54.000     33.388     81.000     26.936     60.000     33.292     63.000     32.832    135.1252 
4     54.000     33.388     81.000     26.936     72.000     28.980     75.000     28.185    856.2430 
4     57.000     33.340     84.000     26.311     75.000     28.185     78.000     27.561    788.3414 
4     57.000     33.340     84.000     26.311     63.000     32.832     66.000     31.548    395.9555 
4     60.000     33.292     87.000     25.686     66.000     31.548     69.000     30.264    596.2380 
4     60.000     33.292     87.000     25.686     78.000     27.561     81.000     26.936   1469.7861 
4     63.000     32.832     90.000     24.876     69.000     30.264     72.000     28.980    268.8025 
4     63.000     32.832     90.000     24.876     81.000     26.936     84.000     26.311   1929.6541 
4     66.000     31.548     93.000     23.945     84.000     26.311     87.000     25.686   1847.2302 
4     66.000     31.548     93.000     23.945     72.000     28.980     75.000     28.185    417.5822 
4     69.000     30.264     96.000     23.015     75.000     28.185     78.000     27.561    887.9300 
4     69.000     30.264     96.000     23.015     87.000     25.686     90.000     24.876   1708.5375 
4     72.000     28.980     99.000     22.085     78.000     27.561     81.000     26.936   1197.2102 
